Model,TBS1102C,
Firmware Version,v2015-08-04-prequal4ch70_v1.3,

Point Format,Y,
Horizontal Units,S,
Horizontal Scale,0.02,
Sample Interval,0.00016,
Filter Frequency,2e+08,
Record Length,2000,
Gating,0.0% to 100.0%,0.0% to 100.0%
Probe Attenuation,1,1
Vertical Units,V,V
Vertical Offset,0,0
Vertical Scale,0.5,0.01
Label,,
TIME,CH1,CH2
-1.600e-01,-2.22,0.0064
-1.598e-01,-2.2,0.0092
-1.597e-01,-2.18,0.0096
-1.595e-01,-2.16,0.0108
-1.594e-01,-2.14,0.0096
-1.592e-01,-2.14,0.0108
-1.590e-01,-2.12,0.0112
-1.589e-01,-2.1,0.012
-1.587e-01,-2.08,0.014
-1.586e-01,-2.06,0.0128
-1.584e-01,-2.04,0.0136
-1.582e-01,-2.02,0.0128
-1.581e-01,-2,0.014
-1.579e-01,-1.96,0.0152
-1.578e-01,-1.94,0.0144
-1.576e-01,-1.92,0.0176
-1.574e-01,-1.9,0.0188
-1.573e-01,-1.86,0.0152
-1.571e-01,-1.84,0.0164
-1.570e-01,-1.82,0.0172
-1.568e-01,-1.78,0.0188
-1.566e-01,-1.76,0.02
-1.565e-01,-1.72,0.0204
-1.563e-01,-1.72,0.02
-1.562e-01,-1.68,0.0216
-1.560e-01,-1.62,0.0212
-1.558e-01,-1.6,0.0212
-1.557e-01,-1.58,0.0236
-1.555e-01,-1.54,0.0224
-1.554e-01,-1.5,0.0212
-1.552e-01,-1.46,0.0232
-1.550e-01,-1.44,0.0248
-1.549e-01,-1.4,0.024
-1.547e-01,-1.36,0.0248
-1.546e-01,-1.32,0.024
-1.544e-01,-1.28,0.0236
-1.542e-01,-1.24,0.0228
-1.541e-01,-1.22,0.022
-1.539e-01,-1.16,0.0248
-1.538e-01,-1.12,0.0272
-1.536e-01,-1.08,0.0272
-1.534e-01,-1.06,0.0256
-1.533e-01,-1,0.0252
-1.531e-01,-0.96,0.026
-1.530e-01,-0.92,0.0296
-1.528e-01,-0.88,0.0284
-1.526e-01,-0.84,0.0272
-1.525e-01,-0.78,0.03
-1.523e-01,-0.76,0.028
-1.522e-01,-0.7,0.0276
-1.520e-01,-0.66,0.0292
-1.518e-01,-0.62,0.0296
-1.517e-01,-0.56,0.0288
-1.515e-01,-0.52,0.0292
-1.514e-01,-0.48,0.0296
-1.512e-01,-0.46,0.0296
-1.510e-01,-0.4,0.0304
-1.509e-01,-0.36,0.0292
-1.507e-01,-0.3,0.03
-1.506e-01,-0.26,0.0288
-1.504e-01,-0.22,0.0304
-1.502e-01,-0.2,0.0292
-1.501e-01,-0.12,0.0308
-1.499e-01,-0.08,0.0292
-1.498e-01,-0.04,0.0328
-1.496e-01,0.02,0.0308
-1.494e-01,0.04,0.0312
-1.493e-01,0.08,0.0308
-1.491e-01,0.12,0.0296
-1.490e-01,0.18,0.0304
-1.488e-01,0.22,0.03
-1.486e-01,0.26,0.03
-1.485e-01,0.32,0.0308
-1.483e-01,0.36,0.03
-1.482e-01,0.4,0.0308
-1.480e-01,0.44,0.0288
-1.478e-01,0.5,0.0276
-1.477e-01,0.54,0.0284
-1.475e-01,0.58,0.0284
-1.474e-01,0.62,0.0292
-1.472e-01,0.66,0.028
-1.470e-01,0.72,0.0296
-1.469e-01,0.76,0.0288
-1.467e-01,0.8,0.0288
-1.466e-01,0.84,0.0312
-1.464e-01,0.88,0.028
-1.462e-01,0.94,0.0312
-1.461e-01,0.96,0.0276
-1.459e-01,1,0.0264
-1.458e-01,1.06,0.0268
-1.456e-01,1.1,0.0256
-1.454e-01,1.14,0.0268
-1.453e-01,1.18,0.0276
-1.451e-01,1.22,0.0272
-1.450e-01,1.26,0.0256
-1.448e-01,1.3,0.024
-1.446e-01,1.34,0.0252
-1.445e-01,1.38,0.026
-1.443e-01,1.42,0.0228
-1.442e-01,1.44,0.0236
-1.440e-01,1.48,0.0224
-1.438e-01,1.52,0.0216
-1.437e-01,1.56,0.022
-1.435e-01,1.6,0.0232
-1.434e-01,1.62,0.0232
-1.432e-01,1.64,0.0212
-1.430e-01,1.7,0.0216
-1.429e-01,1.7,0.0196
-1.427e-01,1.74,0.0196
-1.426e-01,1.76,0.0196
-1.424e-01,1.82,0.018
-1.422e-01,1.82,0.0192
-1.421e-01,1.86,0.0176
-1.419e-01,1.88,0.0176
-1.418e-01,1.9,0.0164
-1.416e-01,1.94,0.0164
-1.414e-01,1.96,0.0164
-1.413e-01,1.98,0.0156
-1.411e-01,2,0.0152
-1.410e-01,2.02,0.014
-1.408e-01,2.06,0.0136
-1.406e-01,2.08,0.0128
-1.405e-01,2.08,0.0116
-1.403e-01,2.12,0.0128
-1.402e-01,2.12,0.0128
-1.400e-01,2.14,0.0116
-1.398e-01,2.18,0.0124
-1.397e-01,2.16,0.0104
-1.395e-01,2.2,0.0092
-1.394e-01,2.22,0.0084
-1.392e-01,2.22,0.0032
-1.390e-01,2.22,0.0072
-1.389e-01,2.24,0.008
-1.387e-01,2.26,0.0084
-1.386e-01,2.28,0.0068
-1.384e-01,2.28,0.0056
-1.382e-01,2.28,0.0052
-1.381e-01,2.28,0.0044
-1.379e-01,2.32,0.0036
-1.378e-01,2.3,0.0028
-1.376e-01,2.3,0.0032
-1.374e-01,2.32,0.002
-1.373e-01,2.32,0.0016
-1.371e-01,2.32,-0.0016
-1.370e-01,2.32,0.002
-1.368e-01,2.3,-0.0012
-1.366e-01,2.3,0
-1.365e-01,2.32,-0.0024
-1.363e-01,2.3,-0.0024
-1.362e-01,2.3,-0.0024
-1.360e-01,2.28,-0.0044
-1.358e-01,2.28,-0.004
-1.357e-01,2.26,-0.0052
-1.355e-01,2.26,-0.0048
-1.354e-01,2.26,-0.0044
-1.352e-01,2.24,-0.0064
-1.350e-01,2.22,-0.0096
-1.349e-01,2.22,-0.0108
-1.347e-01,2.2,-0.0084
-1.346e-01,2.18,-0.0092
-1.344e-01,2.18,-0.0088
-1.342e-01,2.16,-0.0096
-1.341e-01,2.14,-0.012
-1.339e-01,2.12,-0.012
-1.338e-01,2.12,-0.0128
-1.336e-01,2.08,-0.0116
-1.334e-01,2.08,-0.012
-1.333e-01,2.06,-0.0132
-1.331e-01,2.02,-0.0128
-1.330e-01,2,-0.0136
-1.328e-01,2,-0.0144
-1.326e-01,1.96,-0.0168
-1.325e-01,1.92,-0.0164
-1.323e-01,1.9,-0.016
-1.322e-01,1.88,-0.0164
-1.320e-01,1.86,-0.0176
-1.318e-01,1.82,-0.0184
-1.317e-01,1.8,-0.018
-1.315e-01,1.76,-0.0188
-1.314e-01,1.76,-0.0192
-1.312e-01,1.7,-0.0192
-1.310e-01,1.68,-0.0192
-1.309e-01,1.64,-0.0256
-1.307e-01,1.62,-0.0204
-1.306e-01,1.58,-0.0212
-1.304e-01,1.54,-0.0216
-1.302e-01,1.5,-0.022
-1.301e-01,1.48,-0.02
-1.299e-01,1.44,-0.0224
-1.298e-01,1.4,-0.026
-1.296e-01,1.36,-0.0236
-1.294e-01,1.32,-0.0232
-1.293e-01,1.28,-0.0244
-1.291e-01,1.26,-0.0252
-1.290e-01,1.2,-0.0244
-1.288e-01,1.16,-0.0256
-1.286e-01,1.12,-0.0252
-1.285e-01,1.08,-0.0264
-1.283e-01,1.04,-0.0268
-1.282e-01,1,-0.0268
-1.280e-01,0.96,-0.0268
-1.278e-01,0.92,-0.0276
-1.277e-01,0.88,-0.0276
-1.275e-01,0.84,-0.0284
-1.274e-01,0.78,-0.0284
-1.272e-01,0.74,-0.0276
-1.270e-01,0.72,-0.028
-1.269e-01,0.66,-0.0332
-1.267e-01,0.6,-0.0324
-1.266e-01,0.56,-0.028
-1.264e-01,0.52,-0.0276
-1.262e-01,0.48,-0.0284
-1.261e-01,0.44,-0.0288
-1.259e-01,0.38,-0.0312
-1.258e-01,0.34,-0.0312
-1.256e-01,0.3,-0.026
-1.254e-01,0.24,-0.0284
-1.253e-01,0.2,-0.0296
-1.251e-01,0.16,-0.0296
-1.250e-01,0.12,-0.0308
-1.248e-01,0.06,-0.0304
-1.246e-01,0.02,-0.0304
-1.245e-01,-0.04,-0.0312
-1.243e-01,-0.06,-0.0288
-1.242e-01,-0.1,-0.0292
-1.240e-01,-0.16,-0.03
-1.238e-01,-0.2,-0.0308
-1.237e-01,-0.24,-0.03
-1.235e-01,-0.28,-0.0292
-1.234e-01,-0.34,-0.0296
-1.232e-01,-0.38,-0.0296
-1.230e-01,-0.42,-0.0292
-1.229e-01,-0.46,-0.0284
-1.227e-01,-0.52,-0.03
-1.226e-01,-0.56,-0.0288
-1.224e-01,-0.6,-0.0288
-1.222e-01,-0.66,-0.0284
-1.221e-01,-0.68,-0.028
-1.219e-01,-0.74,-0.028
-1.218e-01,-0.78,-0.0284
-1.216e-01,-0.82,-0.028
-1.214e-01,-0.86,-0.0276
-1.213e-01,-0.9,-0.0284
-1.211e-01,-0.94,-0.0272
-1.210e-01,-0.98,-0.028
-1.208e-01,-1.02,-0.026
-1.206e-01,-1.08,-0.0268
-1.205e-01,-1.12,-0.0272
-1.203e-01,-1.16,-0.0256
-1.202e-01,-1.18,-0.026
-1.200e-01,-1.24,-0.026
-1.198e-01,-1.28,-0.0288
-1.197e-01,-1.3,-0.0252
-1.195e-01,-1.34,-0.0232
-1.194e-01,-1.38,-0.0248
-1.192e-01,-1.44,-0.0236
-1.190e-01,-1.46,-0.0204
-1.189e-01,-1.5,-0.0224
-1.187e-01,-1.54,-0.0216
-1.186e-01,-1.58,-0.0212
-1.184e-01,-1.6,-0.0196
-1.182e-01,-1.64,-0.0212
-1.181e-01,-1.66,-0.0208
-1.179e-01,-1.7,-0.0232
-1.178e-01,-1.72,-0.0184
-1.176e-01,-1.74,-0.0176
-1.174e-01,-1.78,-0.0184
-1.173e-01,-1.8,-0.0184
-1.171e-01,-1.84,-0.0176
-1.170e-01,-1.86,-0.0184
-1.168e-01,-1.9,-0.018
-1.166e-01,-1.92,-0.0144
-1.165e-01,-1.92,-0.0116
-1.163e-01,-1.98,-0.012
-1.162e-01,-1.98,-0.0148
-1.160e-01,-2.02,-0.0132
-1.158e-01,-2.02,-0.012
-1.157e-01,-2.06,-0.0148
-1.155e-01,-2.08,-0.0116
-1.154e-01,-2.1,-0.0128
-1.152e-01,-2.12,-0.012
-1.150e-01,-2.12,-0.0116
-1.149e-01,-2.16,-0.0096
-1.147e-01,-2.16,-0.0084
-1.146e-01,-2.18,-0.0084
-1.144e-01,-2.2,-0.01
-1.142e-01,-2.2,-0.01
-1.141e-01,-2.22,-0.0092
-1.139e-01,-2.24,-0.0076
-1.138e-01,-2.24,-0.008
-1.136e-01,-2.26,-0.0068
-1.134e-01,-2.26,-0.0056
-1.133e-01,-2.26,-0.004
-1.131e-01,-2.28,-0.0056
-1.130e-01,-2.28,-0.0048
-1.128e-01,-2.3,-0.0032
-1.126e-01,-2.3,-0.004
-1.125e-01,-2.32,-0.0032
-1.123e-01,-2.3,-0.0012
-1.122e-01,-2.3,-0.0008
-1.120e-01,-2.32,0.0012
-1.118e-01,-2.3,0.0024
-1.117e-01,-2.3,0.0028
-1.115e-01,-2.3,0.0044
-1.114e-01,-2.3,0.004
-1.112e-01,-2.28,0.0048
-1.110e-01,-2.28,0.0048
-1.109e-01,-2.28,0.0056
-1.107e-01,-2.26,0.0064
-1.106e-01,-2.24,0.0068
-1.104e-01,-2.24,0.0064
-1.102e-01,-2.24,0.0076
-1.101e-01,-2.22,0.0072
-1.099e-01,-2.2,0.0092
-1.098e-01,-2.2,0.0084
-1.096e-01,-2.16,0.0116
-1.094e-01,-2.16,0.01
-1.093e-01,-2.14,0.0112
-1.091e-01,-2.12,0.0112
-1.090e-01,-2.1,0.0124
-1.088e-01,-2.1,0.0124
-1.086e-01,-2.06,0.0128
-1.085e-01,-2.06,0.0124
-1.083e-01,-2.02,0.0148
-1.082e-01,-2,0.014
-1.080e-01,-1.98,0.0144
-1.078e-01,-1.96,0.0176
-1.077e-01,-1.96,0.014
-1.075e-01,-1.9,0.0188
-1.074e-01,-1.88,0.0172
-1.072e-01,-1.86,0.0168
-1.070e-01,-1.84,0.0172
-1.069e-01,-1.8,0.018
-1.067e-01,-1.78,0.0196
-1.066e-01,-1.76,0.018
-1.064e-01,-1.74,0.0192
-1.062e-01,-1.68,0.0176
-1.061e-01,-1.66,0.02
-1.059e-01,-1.62,0.0252
-1.058e-01,-1.6,0.0224
-1.056e-01,-1.56,0.0224
-1.054e-01,-1.54,0.022
-1.053e-01,-1.5,0.0208
-1.051e-01,-1.46,0.0224
-1.050e-01,-1.42,0.0248
-1.048e-01,-1.38,0.024
-1.046e-01,-1.34,0.0224
-1.045e-01,-1.32,0.0256
-1.043e-01,-1.26,0.0252
-1.042e-01,-1.22,0.0256
-1.040e-01,-1.18,0.0256
-1.038e-01,-1.16,0.0248
-1.037e-01,-1.1,0.0272
-1.035e-01,-1.08,0.0268
-1.034e-01,-1.02,0.0288
-1.032e-01,-0.98,0.0288
-1.030e-01,-0.94,0.0284
-1.029e-01,-0.9,0.0272
-1.027e-01,-0.86,0.028
-1.026e-01,-0.8,0.0288
-1.024e-01,-0.78,0.0276
-1.022e-01,-0.72,0.0296
-1.021e-01,-0.68,0.0292
-1.019e-01,-0.66,0.0284
-1.018e-01,-0.6,0.03
-1.016e-01,-0.56,0.0292
-1.014e-01,-0.52,0.0288
-1.013e-01,-0.46,0.03
-1.011e-01,-0.42,0.0292
-1.010e-01,-0.38,0.03
-1.008e-01,-0.32,0.03
-1.006e-01,-0.28,0.0316
-1.005e-01,-0.26,0.03
-1.003e-01,-0.2,0.0296
-1.002e-01,-0.16,0.0308
-1.000e-01,-0.1,0.0272
-9.984e-02,-0.06,0.03
-9.968e-02,-0.02,0.03
-9.952e-02,0.02,0.0308
-9.936e-02,0.06,0.0288
-9.920e-02,0.1,0.0332
-9.904e-02,0.16,0.0308
-9.888e-02,0.2,0.0296
-9.872e-02,0.24,0.0304
-9.856e-02,0.3,0.0308
-9.840e-02,0.34,0.03
-9.824e-02,0.38,0.0292
-9.808e-02,0.44,0.0284
-9.792e-02,0.48,0.03
-9.776e-02,0.5,0.0296
-9.760e-02,0.56,0.0296
-9.744e-02,0.6,0.0284
-9.728e-02,0.64,0.0288
-9.712e-02,0.68,0.028
-9.696e-02,0.72,0.0276
-9.680e-02,0.8,0.03
-9.664e-02,0.82,0.0292
-9.648e-02,0.88,0.0284
-9.632e-02,0.92,0.028
-9.616e-02,0.94,0.0272
-9.600e-02,0.98,0.0272
-9.584e-02,1.02,0.028
-9.568e-02,1.08,0.0292
-9.552e-02,1.12,0.0232
-9.536e-02,1.16,0.0276
-9.520e-02,1.2,0.026
-9.504e-02,1.24,0.0256
-9.488e-02,1.28,0.0276
-9.472e-02,1.3,0.0252
-9.456e-02,1.36,0.0268
-9.440e-02,1.38,0.0244
-9.424e-02,1.44,0.0212
-9.408e-02,1.46,0.024
-9.392e-02,1.5,0.0228
-9.376e-02,1.52,0.0232
-9.360e-02,1.56,0.024
-9.344e-02,1.6,0.0248
-9.328e-02,1.64,0.0216
-9.312e-02,1.66,0.0216
-9.296e-02,1.7,0.0212
-9.280e-02,1.72,0.02
-9.264e-02,1.76,0.02
-9.248e-02,1.78,0.0196
-9.232e-02,1.8,0.0192
-9.216e-02,1.84,0.018
-9.200e-02,1.86,0.0176
-9.184e-02,1.9,0.0172
-9.168e-02,1.92,0.0164
-9.152e-02,1.94,0.0176
-9.136e-02,1.98,0.0168
-9.120e-02,2,0.0152
-9.104e-02,2.02,0.0148
-9.088e-02,2.04,0.0132
-9.072e-02,2.06,0.0144
-9.056e-02,2.08,0.0132
-9.040e-02,2.1,0.0136
-9.024e-02,2.12,0.0124
-9.008e-02,2.12,0.0116
-8.992e-02,2.14,0.0112
-8.976e-02,2.16,0.0132
-8.960e-02,2.18,0.0084
-8.944e-02,2.2,0.01
-8.928e-02,2.22,0.0092
-8.912e-02,2.22,0.0084
-8.896e-02,2.22,0.006
-8.880e-02,2.24,0.0076
-8.864e-02,2.26,0.0068
-8.848e-02,2.28,0.0056
-8.832e-02,2.28,0.0056
-8.816e-02,2.28,0.0064
-8.800e-02,2.3,0.0048
-8.784e-02,2.3,0.0036
-8.768e-02,2.3,0.002
-8.752e-02,2.3,0.0024
-8.736e-02,2.3,0.0032
-8.720e-02,2.3,0.0008
-8.704e-02,2.32,0.0008
-8.688e-02,2.32,0.0012
-8.672e-02,2.3,0.0004
-8.656e-02,2.32,0
-8.640e-02,2.32,-0.0032
-8.624e-02,2.3,-0.0028
-8.608e-02,2.3,-0.0036
-8.592e-02,2.28,-0.0044
-8.576e-02,2.28,-0.0048
-8.560e-02,2.26,-0.006
-8.544e-02,2.26,-0.0068
-8.528e-02,2.24,-0.0052
-8.512e-02,2.24,-0.0048
-8.496e-02,2.22,-0.008
-8.480e-02,2.2,-0.008
-8.464e-02,2.2,-0.0116
-8.448e-02,2.18,-0.0092
-8.432e-02,2.16,-0.0108
-8.416e-02,2.14,-0.0092
-8.400e-02,2.14,-0.0104
-8.384e-02,2.12,-0.012
-8.368e-02,2.1,-0.0128
-8.352e-02,2.08,-0.012
-8.336e-02,2.06,-0.0132
-8.320e-02,2.04,-0.0188
-8.304e-02,2.02,-0.014
-8.288e-02,2,-0.016
-8.272e-02,1.98,-0.0152
-8.256e-02,1.94,-0.0152
-8.240e-02,1.92,-0.0168
-8.224e-02,1.88,-0.0164
-8.208e-02,1.86,-0.0184
-8.192e-02,1.84,-0.0184
-8.176e-02,1.82,-0.0184
-8.160e-02,1.78,-0.018
-8.144e-02,1.74,-0.0184
-8.128e-02,1.72,-0.0196
-8.112e-02,1.7,-0.0204
-8.096e-02,1.66,-0.02
-8.080e-02,1.62,-0.0212
-8.064e-02,1.6,-0.0212
-8.048e-02,1.56,-0.022
-8.032e-02,1.52,-0.0268
-8.016e-02,1.5,-0.0216
-8.000e-02,1.46,-0.0248
-7.984e-02,1.42,-0.0228
-7.968e-02,1.38,-0.024
-7.952e-02,1.34,-0.0244
-7.936e-02,1.3,-0.0248
-7.920e-02,1.26,-0.0252
-7.904e-02,1.22,-0.026
-7.888e-02,1.18,-0.026
-7.872e-02,1.14,-0.026
-7.856e-02,1.12,-0.0252
-7.840e-02,1.06,-0.0268
-7.824e-02,1.02,-0.0268
-7.808e-02,0.98,-0.026
-7.792e-02,0.94,-0.0276
-7.776e-02,0.9,-0.0288
-7.760e-02,0.86,-0.0276
-7.744e-02,0.8,-0.028
-7.728e-02,0.78,-0.0284
-7.712e-02,0.72,-0.0268
-7.696e-02,0.68,-0.0288
-7.680e-02,0.64,-0.0292
-7.664e-02,0.6,-0.0292
-7.648e-02,0.54,-0.03
-7.632e-02,0.5,-0.03
-7.616e-02,0.46,-0.0308
-7.600e-02,0.4,-0.0288
-7.584e-02,0.36,-0.0272
-7.568e-02,0.32,-0.03
-7.552e-02,0.28,-0.0316
-7.536e-02,0.22,-0.0308
-7.520e-02,0.18,-0.0288
-7.504e-02,0.14,-0.0284
-7.488e-02,0.08,-0.0296
-7.472e-02,0.04,-0.03
-7.456e-02,0,-0.03
-7.440e-02,-0.04,-0.0284
-7.424e-02,-0.08,-0.0316
-7.408e-02,-0.12,-0.0304
-7.392e-02,-0.16,-0.0284
-7.376e-02,-0.22,-0.0284
-7.360e-02,-0.28,-0.03
-7.344e-02,-0.3,-0.0304
-7.328e-02,-0.38,-0.0304
-7.312e-02,-0.42,-0.0284
-7.296e-02,-0.44,-0.0296
-7.280e-02,-0.48,-0.0308
-7.264e-02,-0.54,-0.0288
-7.248e-02,-0.58,-0.028
-7.232e-02,-0.62,-0.0276
-7.216e-02,-0.66,-0.0288
-7.200e-02,-0.7,-0.0292
-7.184e-02,-0.76,-0.0284
-7.168e-02,-0.8,-0.0292
-7.152e-02,-0.84,-0.0276
-7.136e-02,-0.88,-0.0284
-7.120e-02,-0.92,-0.028
-7.104e-02,-0.98,-0.0296
-7.088e-02,-1,-0.0276
-7.072e-02,-1.06,-0.0272
-7.056e-02,-1.08,-0.0256
-7.040e-02,-1.12,-0.0268
-7.024e-02,-1.16,-0.0248
-7.008e-02,-1.2,-0.0236
-6.992e-02,-1.26,-0.0264
-6.976e-02,-1.28,-0.0248
-6.960e-02,-1.32,-0.0248
-6.944e-02,-1.36,-0.0248
-6.928e-02,-1.4,-0.024
-6.912e-02,-1.44,-0.024
-6.896e-02,-1.48,-0.0236
-6.880e-02,-1.52,-0.0224
-6.864e-02,-1.54,-0.0232
-6.848e-02,-1.58,-0.0204
-6.832e-02,-1.62,-0.0216
-6.816e-02,-1.64,-0.0208
-6.800e-02,-1.68,-0.022
-6.784e-02,-1.72,-0.0196
-6.768e-02,-1.76,-0.022
-6.752e-02,-1.76,-0.0192
-6.736e-02,-1.82,-0.0184
-6.720e-02,-1.82,-0.0172
-6.704e-02,-1.86,-0.0172
-6.688e-02,-1.88,-0.0172
-6.672e-02,-1.92,-0.018
-6.656e-02,-1.92,-0.0152
-6.640e-02,-1.96,-0.0164
-6.624e-02,-1.98,-0.0212
-6.608e-02,-2,-0.0156
-6.592e-02,-2.02,-0.012
-6.576e-02,-2.04,-0.0144
-6.560e-02,-2.06,-0.0132
-6.544e-02,-2.1,-0.014
-6.528e-02,-2.12,-0.0116
-6.512e-02,-2.12,-0.0116
-6.496e-02,-2.14,-0.0108
-6.480e-02,-2.16,-0.01
-6.464e-02,-2.18,-0.0096
-6.448e-02,-2.2,-0.0104
-6.432e-02,-2.2,-0.0096
-6.416e-02,-2.2,-0.0072
-6.400e-02,-2.22,-0.0072
-6.384e-02,-2.24,-0.008
-6.368e-02,-2.26,-0.0084
-6.352e-02,-2.26,-0.008
-6.336e-02,-2.28,-0.0064
-6.320e-02,-2.28,-0.0052
-6.304e-02,-2.28,-0.0048
-6.288e-02,-2.3,-0.0044
-6.272e-02,-2.3,-0.004
-6.256e-02,-2.3,-0.0024
-6.240e-02,-2.3,-0.002
-6.224e-02,-2.32,-0.002
-6.208e-02,-2.3,-0.0004
-6.192e-02,-2.3,0.0012
-6.176e-02,-2.3,0.0012
-6.160e-02,-2.3,0.0028
-6.144e-02,-2.3,0.0036
-6.128e-02,-2.3,0.004
-6.112e-02,-2.3,0.0044
-6.096e-02,-2.28,0.0056
-6.080e-02,-2.26,0.0052
-6.064e-02,-2.26,0.006
-6.048e-02,-2.24,0.008
-6.032e-02,-2.24,0.0068
-6.016e-02,-2.22,0.0096
-6.000e-02,-2.22,0.0044
-5.984e-02,-2.2,0.0088
-5.968e-02,-2.18,0.0084
-5.952e-02,-2.18,0.0092
-5.936e-02,-2.16,0.0092
-5.920e-02,-2.14,0.0112
-5.904e-02,-2.12,0.0104
-5.888e-02,-2.1,0.0108
-5.872e-02,-2.08,0.012
-5.856e-02,-2.06,0.0128
-5.840e-02,-2.04,0.0108
-5.824e-02,-2.02,0.0136
-5.808e-02,-2,0.014
-5.792e-02,-1.98,0.0144
-5.776e-02,-1.96,0.0148
-5.760e-02,-1.92,0.016
-5.744e-02,-1.9,0.0168
-5.728e-02,-1.86,0.018
-5.712e-02,-1.84,0.0188
-5.696e-02,-1.82,0.0164
-5.680e-02,-1.78,0.0212
-5.664e-02,-1.76,0.0172
-5.648e-02,-1.74,0.0188
-5.632e-02,-1.7,0.0204
-5.616e-02,-1.68,0.0196
-5.600e-02,-1.64,0.0208
-5.584e-02,-1.62,0.02
-5.568e-02,-1.58,0.0216
-5.552e-02,-1.56,0.02
-5.536e-02,-1.52,0.0224
-5.520e-02,-1.48,0.0232
-5.504e-02,-1.44,0.024
-5.488e-02,-1.42,0.0224
-5.472e-02,-1.36,0.0236
-5.456e-02,-1.34,0.0228
-5.440e-02,-1.28,0.0236
-5.424e-02,-1.24,0.0232
-5.408e-02,-1.22,0.0248
-5.392e-02,-1.18,0.0256
-5.376e-02,-1.12,0.0276
-5.360e-02,-1.1,0.024
-5.344e-02,-1.06,0.0268
-5.328e-02,-1.02,0.0264
-5.312e-02,-0.96,0.026
-5.296e-02,-0.92,0.0268
-5.280e-02,-0.88,0.028
-5.264e-02,-0.84,0.0268
-5.248e-02,-0.8,0.028
-5.232e-02,-0.78,0.0276
-5.216e-02,-0.72,0.0276
-5.200e-02,-0.66,0.03
-5.184e-02,-0.62,0.028
-5.168e-02,-0.58,0.0304
-5.152e-02,-0.54,0.0292
-5.136e-02,-0.5,0.0296
-5.120e-02,-0.44,0.03
-5.104e-02,-0.4,0.03
-5.088e-02,-0.36,0.03
-5.072e-02,-0.3,0.0308
-5.056e-02,-0.28,0.0284
-5.040e-02,-0.22,0.0296
-5.024e-02,-0.2,0.0304
-5.008e-02,-0.14,0.0308
-4.992e-02,-0.08,0.0288
-4.976e-02,-0.04,0.0304
-4.960e-02,-0.02,0.03
-4.944e-02,0.04,0.0312
-4.928e-02,0.08,0.0304
-4.912e-02,0.12,0.0308
-4.896e-02,0.18,0.0308
-4.880e-02,0.24,0.03
-4.864e-02,0.26,0.03
-4.848e-02,0.3,0.0304
-4.832e-02,0.36,0.0304
-4.816e-02,0.38,0.0292
-4.800e-02,0.44,0.0288
-4.784e-02,0.48,0.0292
-4.768e-02,0.54,0.0296
-4.752e-02,0.58,0.0248
-4.736e-02,0.62,0.0292
-4.720e-02,0.66,0.0296
-4.704e-02,0.7,0.022
-4.688e-02,0.76,0.0284
-4.672e-02,0.8,0.0292
-4.656e-02,0.84,0.0288
-4.640e-02,0.88,0.0276
-4.624e-02,0.94,0.0292
-4.608e-02,0.96,0.0228
-4.592e-02,1,0.0268
-4.576e-02,1.06,0.024
-4.560e-02,1.1,0.0276
-4.544e-02,1.14,0.026
-4.528e-02,1.18,0.0232
-4.512e-02,1.2,0.024
-4.496e-02,1.24,0.0276
-4.480e-02,1.28,0.0232
-4.464e-02,1.32,0.0252
-4.448e-02,1.36,0.0292
-4.432e-02,1.4,0.0252
-4.416e-02,1.44,0.0252
-4.400e-02,1.48,0.0224
-4.384e-02,1.52,0.02
-4.368e-02,1.54,0.0228
-4.352e-02,1.58,0.0208
-4.336e-02,1.62,0.022
-4.320e-02,1.64,0.0224
-4.304e-02,1.68,0.0212
-4.288e-02,1.7,0.0208
-4.272e-02,1.74,0.02
-4.256e-02,1.76,0.0192
-4.240e-02,1.8,0.0184
-4.224e-02,1.82,0.0188
-4.208e-02,1.86,0.0188
-4.192e-02,1.88,0.018
-4.176e-02,1.9,0.0172
-4.160e-02,1.94,0.0168
-4.144e-02,1.94,0.0132
-4.128e-02,1.98,0.016
-4.112e-02,2,0.022
-4.096e-02,2.04,0.0148
-4.080e-02,2.04,0.0148
-4.064e-02,2.08,0.0124
-4.048e-02,2.08,0.0096
-4.032e-02,2.1,0.0128
-4.016e-02,2.12,0.0112
-4.000e-02,2.14,0.0124
-3.984e-02,2.18,0.01
-3.968e-02,2.18,0.01
-3.952e-02,2.18,0.0072
-3.936e-02,2.2,0.0104
-3.920e-02,2.22,0.0072
-3.904e-02,2.24,0.0104
-3.888e-02,2.24,0.0068
-3.872e-02,2.26,0.0068
-3.856e-02,2.26,0.006
-3.840e-02,2.26,0.0064
-3.824e-02,2.3,0.006
-3.808e-02,2.3,0.0064
-3.792e-02,2.28,0.004
-3.776e-02,2.3,0.0032
-3.760e-02,2.3,0.0024
-3.744e-02,2.3,0.0028
-3.728e-02,2.32,0.0032
-3.712e-02,2.32,0.002
-3.696e-02,2.32,0.0024
-3.680e-02,2.32,-0.0012
-3.664e-02,2.32,0
-3.648e-02,2.3,-0.0016
-3.632e-02,2.3,-0.0024
-3.616e-02,2.3,-0.0028
-3.600e-02,2.3,-0.0052
-3.584e-02,2.28,-0.0052
-3.568e-02,2.28,-0.0056
-3.552e-02,2.26,-0.0072
-3.536e-02,2.26,-0.0052
-3.520e-02,2.24,-0.0048
-3.504e-02,2.24,-0.0076
-3.488e-02,2.24,-0.0096
-3.472e-02,2.2,-0.0084
-3.456e-02,2.2,-0.008
-3.440e-02,2.18,-0.008
-3.424e-02,2.16,-0.0088
-3.408e-02,2.16,-0.0088
-3.392e-02,2.14,-0.0112
-3.376e-02,2.1,-0.012
-3.360e-02,2.08,-0.0116
-3.344e-02,2.08,-0.0136
-3.328e-02,2.06,-0.0128
-3.312e-02,2.02,-0.0148
-3.296e-02,2,-0.016
-3.280e-02,2,-0.014
-3.264e-02,1.96,-0.0132
-3.248e-02,1.94,-0.0164
-3.232e-02,1.9,-0.016
-3.216e-02,1.9,-0.0168
-3.200e-02,1.86,-0.0156
-3.184e-02,1.84,-0.0172
-3.168e-02,1.8,-0.0168
-3.152e-02,1.78,-0.0188
-3.136e-02,1.74,-0.0192
-3.120e-02,1.7,-0.0192
-3.104e-02,1.7,-0.0192
-3.088e-02,1.64,-0.0204
-3.072e-02,1.62,-0.0204
-3.056e-02,1.58,-0.0188
-3.040e-02,1.54,-0.0208
-3.024e-02,1.52,-0.0212
-3.008e-02,1.48,-0.0224
-2.992e-02,1.44,-0.0232
-2.976e-02,1.4,-0.0228
-2.960e-02,1.36,-0.0232
-2.944e-02,1.32,-0.0248
-2.928e-02,1.28,-0.0252
-2.912e-02,1.26,-0.026
-2.896e-02,1.22,-0.0248
-2.880e-02,1.2,-0.0228
-2.864e-02,1.12,-0.0256
-2.848e-02,1.1,-0.0268
-2.832e-02,1.04,-0.0256
-2.816e-02,1,-0.0284
-2.800e-02,0.96,-0.0272
-2.784e-02,0.94,-0.0272
-2.768e-02,0.88,-0.0276
-2.752e-02,0.84,-0.028
-2.736e-02,0.78,-0.0288
-2.720e-02,0.76,-0.0284
-2.704e-02,0.72,-0.0288
-2.688e-02,0.66,-0.0268
-2.672e-02,0.62,-0.028
-2.656e-02,0.58,-0.0284
-2.640e-02,0.54,-0.0284
-2.624e-02,0.5,-0.0288
-2.608e-02,0.44,-0.0304
-2.592e-02,0.4,-0.0276
-2.576e-02,0.34,-0.03
-2.560e-02,0.3,-0.0272
-2.544e-02,0.28,-0.0284
-2.528e-02,0.22,-0.03
-2.512e-02,0.18,-0.0304
-2.496e-02,0.12,-0.03
-2.480e-02,0.08,-0.0312
-2.464e-02,0.02,-0.03
-2.448e-02,0,-0.0288
-2.432e-02,-0.06,-0.0292
-2.416e-02,-0.1,-0.0308
-2.400e-02,-0.16,-0.0316
-2.384e-02,-0.2,-0.0304
-2.368e-02,-0.22,-0.03
-2.352e-02,-0.28,-0.0288
-2.336e-02,-0.32,-0.0304
-2.320e-02,-0.38,-0.0268
-2.304e-02,-0.42,-0.0276
-2.288e-02,-0.46,-0.0304
-2.272e-02,-0.52,-0.0296
-2.256e-02,-0.56,-0.0296
-2.240e-02,-0.6,-0.0288
-2.224e-02,-0.64,-0.0288
-2.208e-02,-0.68,-0.0312
-2.192e-02,-0.72,-0.028
-2.176e-02,-0.78,-0.0324
-2.160e-02,-0.82,-0.0284
-2.144e-02,-0.86,-0.0276
-2.128e-02,-0.9,-0.0276
-2.112e-02,-0.94,-0.0284
-2.096e-02,-0.98,-0.0276
-2.080e-02,-1.02,-0.0272
-2.064e-02,-1.06,-0.0272
-2.048e-02,-1.1,-0.0264
-2.032e-02,-1.16,-0.026
-2.016e-02,-1.18,-0.0252
-2.000e-02,-1.22,-0.0252
-1.984e-02,-1.26,-0.024
-1.968e-02,-1.3,-0.0248
-1.952e-02,-1.34,-0.0252
-1.936e-02,-1.38,-0.0244
-1.920e-02,-1.42,-0.024
-1.904e-02,-1.46,-0.0224
-1.888e-02,-1.5,-0.0236
-1.872e-02,-1.54,-0.0232
-1.856e-02,-1.56,-0.0232
-1.840e-02,-1.6,-0.0216
-1.824e-02,-1.64,-0.0216
-1.808e-02,-1.66,-0.0208
-1.792e-02,-1.7,-0.02
-1.776e-02,-1.72,-0.0192
-1.760e-02,-1.76,-0.0216
-1.744e-02,-1.78,-0.0192
-1.728e-02,-1.82,-0.016
-1.712e-02,-1.84,-0.0188
-1.696e-02,-1.86,-0.0168
-1.680e-02,-1.9,-0.0172
-1.664e-02,-1.92,-0.0152
-1.648e-02,-1.94,-0.0152
-1.632e-02,-1.96,-0.0128
-1.616e-02,-2,-0.0148
-1.600e-02,-2,-0.0148
-1.584e-02,-2.04,-0.0144
-1.568e-02,-2.08,-0.0148
-1.552e-02,-2.06,-0.0148
-1.536e-02,-2.1,-0.0136
-1.520e-02,-2.12,-0.0112
-1.504e-02,-2.12,-0.0112
-1.488e-02,-2.14,-0.0128
-1.472e-02,-2.16,-0.0104
-1.456e-02,-2.18,-0.0112
-1.440e-02,-2.2,-0.0064
-1.424e-02,-2.2,-0.0088
-1.408e-02,-2.22,-0.0076
-1.392e-02,-2.24,-0.0068
-1.376e-02,-2.26,-0.0084
-1.360e-02,-2.26,-0.0072
-1.344e-02,-2.26,-0.0068
-1.328e-02,-2.28,-0.0064
-1.312e-02,-2.28,-0.0028
-1.296e-02,-2.28,-0.0044
-1.280e-02,-2.3,-0.0032
-1.264e-02,-2.3,-0.0036
-1.248e-02,-2.3,-0.0028
-1.232e-02,-2.3,-0.0024
-1.216e-02,-2.32,-0.0012
-1.200e-02,-2.32,-0.0004
-1.184e-02,-2.32,0.0016
-1.168e-02,-2.3,0.0036
-1.152e-02,-2.3,0.0028
-1.136e-02,-2.3,0.004
-1.120e-02,-2.3,0.0028
-1.104e-02,-2.28,0.0052
-1.088e-02,-2.28,0.0032
-1.072e-02,-2.26,0.0052
-1.056e-02,-2.26,0.0028
-1.040e-02,-2.26,0.0076
-1.024e-02,-2.24,0.006
-1.008e-02,-2.22,0.0084
-9.920e-03,-2.22,0.0076
-9.760e-03,-2.2,0.01
-9.600e-03,-2.18,0.0096
-9.440e-03,-2.16,0.0104
-9.280e-03,-2.16,0.0072
-9.120e-03,-2.12,0.0116
-8.960e-03,-2.1,0.0116
-8.800e-03,-2.1,0.0124
-8.640e-03,-2.08,0.0112
-8.480e-03,-2.06,0.0088
-8.320e-03,-2.02,0.0152
-8.160e-03,-2.02,0.0132
-8.000e-03,-2,0.0132
-7.840e-03,-1.96,0.0148
-7.680e-03,-1.94,0.016
-7.520e-03,-1.92,0.0168
-7.360e-03,-1.9,0.0164
-7.200e-03,-1.88,0.0152
-7.040e-03,-1.84,0.0164
-6.880e-03,-1.8,0.0172
-6.720e-03,-1.78,0.018
-6.560e-03,-1.76,0.0228
-6.400e-03,-1.72,0.0208
-6.240e-03,-1.7,0.02
-6.080e-03,-1.66,0.0208
-5.920e-03,-1.64,0.0212
-5.760e-03,-1.6,0.0208
-5.600e-03,-1.56,0.0216
-5.440e-03,-1.54,0.0228
-5.280e-03,-1.5,0.0224
-5.120e-03,-1.46,0.024
-4.960e-03,-1.42,0.0252
-4.800e-03,-1.4,0.0236
-4.640e-03,-1.36,0.0228
-4.480e-03,-1.32,0.0248
-4.320e-03,-1.26,0.0256
-4.160e-03,-1.24,0.0248
-4.000e-03,-1.18,0.0252
-3.840e-03,-1.16,0.024
-3.680e-03,-1.12,0.026
-3.520e-03,-1.08,0.026
-3.360e-03,-1.04,0.0252
-3.200e-03,-1,0.0272
-3.040e-03,-0.94,0.028
-2.880e-03,-0.9,0.028
-2.720e-03,-0.86,0.0292
-2.560e-03,-0.82,0.0276
-2.400e-03,-0.78,0.028
-2.240e-03,-0.74,0.0284
-2.080e-03,-0.68,0.0292
-1.920e-03,-0.66,0.0272
-1.760e-03,-0.6,0.0292
-1.600e-03,-0.56,0.0288
-1.440e-03,-0.54,0.0288
-1.280e-03,-0.48,0.03
-1.120e-03,-0.44,0.0292
-9.600e-04,-0.38,0.0292
-8.000e-04,-0.34,0.0264
-6.400e-04,-0.3,0.0292
-4.800e-04,-0.26,0.0296
-3.200e-04,-0.2,0.03
-1.600e-04,-0.16,0.0288
-3.793e-15,-0.12,0.0292
1.600e-04,-0.08,0.03
3.200e-04,-0.04,0.026
4.800e-04,0.02,0.0292
6.400e-04,0.06,0.0296
8.000e-04,0.1,0.0296
9.600e-04,0.16,0.0304
1.120e-03,0.2,0.0304
1.280e-03,0.24,0.0304
1.440e-03,0.3,0.0296
1.600e-03,0.32,0.0296
1.760e-03,0.36,0.0308
1.920e-03,0.42,0.0296
2.080e-03,0.46,0.0296
2.240e-03,0.5,0.0296
2.400e-03,0.56,0.0292
2.560e-03,0.58,0.0272
2.720e-03,0.64,0.0288
2.880e-03,0.68,0.0316
3.040e-03,0.72,0.024
3.200e-03,0.76,0.0276
3.360e-03,0.82,0.0304
3.520e-03,0.86,0.0284
3.680e-03,0.9,0.0272
3.840e-03,0.94,0.0284
4.000e-03,0.98,0.0268
4.160e-03,1.02,0.0264
4.320e-03,1.08,0.0288
4.480e-03,1.1,0.0276
4.640e-03,1.16,0.0256
4.800e-03,1.18,0.0252
4.960e-03,1.22,0.0264
5.120e-03,1.26,0.024
5.280e-03,1.3,0.0212
5.440e-03,1.34,0.026
5.600e-03,1.4,0.024
5.760e-03,1.42,0.0236
5.920e-03,1.46,0.0232
6.080e-03,1.5,0.0228
6.240e-03,1.52,0.0216
6.400e-03,1.56,0.022
6.560e-03,1.58,0.0204
6.720e-03,1.62,0.0224
6.880e-03,1.66,0.0224
7.040e-03,1.68,0.0208
7.200e-03,1.72,0.02
7.360e-03,1.74,0.0196
7.520e-03,1.78,0.0196
7.680e-03,1.8,0.0152
7.840e-03,1.84,0.0184
8.000e-03,1.86,0.0176
8.160e-03,1.88,0.0164
8.320e-03,1.92,0.0168
8.480e-03,1.94,0.0156
8.640e-03,1.98,0.0156
8.800e-03,2,0.016
8.960e-03,2,0.0144
9.120e-03,2.04,0.014
9.280e-03,2.06,0.0132
9.440e-03,2.08,0.0116
9.600e-03,2.08,0.012
9.760e-03,2.12,0.0116
9.920e-03,2.14,0.0136
1.008e-02,2.14,0.0116
1.024e-02,2.16,0.01
1.040e-02,2.18,0.0108
1.056e-02,2.2,0.0084
1.072e-02,2.2,0.0092
1.088e-02,2.22,0.0092
1.104e-02,2.24,0.0072
1.120e-02,2.24,0.0076
1.136e-02,2.24,0.0064
1.152e-02,2.26,0.0056
1.168e-02,2.28,0.0056
1.184e-02,2.28,0.006
1.200e-02,2.3,0.0044
1.216e-02,2.3,0.004
1.232e-02,2.3,0.0024
1.248e-02,2.3,0.0032
1.264e-02,2.3,0.002
1.280e-02,2.3,0.0024
1.296e-02,2.3,0.0028
1.312e-02,2.3,-0.0032
1.328e-02,2.32,-0.0004
1.344e-02,2.3,-0.0024
1.360e-02,2.3,-0.002
1.376e-02,2.3,0.0008
1.392e-02,2.3,-0.0032
1.408e-02,2.28,-0.0032
1.424e-02,2.28,-0.0068
1.440e-02,2.28,-0.002
1.456e-02,2.26,-0.0064
1.472e-02,2.26,-0.004
1.488e-02,2.24,-0.008
1.504e-02,2.24,-0.0104
1.520e-02,2.2,-0.0092
1.536e-02,2.2,-0.0108
1.552e-02,2.18,-0.0116
1.568e-02,2.16,-0.0136
1.584e-02,2.14,-0.01
1.600e-02,2.14,-0.0084
1.616e-02,2.14,-0.0108
1.632e-02,2.12,-0.012
1.648e-02,2.08,-0.0124
1.664e-02,2.06,-0.0128
1.680e-02,2.04,-0.0128
1.696e-02,2.02,-0.014
1.712e-02,2,-0.0132
1.728e-02,1.96,-0.016
1.744e-02,1.94,-0.0148
1.760e-02,1.92,-0.016
1.776e-02,1.9,-0.0168
1.792e-02,1.88,-0.0172
1.808e-02,1.84,-0.0176
1.824e-02,1.82,-0.0176
1.840e-02,1.78,-0.0196
1.856e-02,1.76,-0.0184
1.872e-02,1.72,-0.0176
1.888e-02,1.7,-0.0192
1.904e-02,1.66,-0.0208
1.920e-02,1.64,-0.0208
1.936e-02,1.6,-0.022
1.952e-02,1.56,-0.0224
1.968e-02,1.54,-0.0232
1.984e-02,1.5,-0.0228
2.000e-02,1.48,-0.0232
2.016e-02,1.42,-0.0236
2.032e-02,1.4,-0.0228
2.048e-02,1.34,-0.0252
2.064e-02,1.3,-0.0236
2.080e-02,1.26,-0.0252
2.096e-02,1.22,-0.0264
2.112e-02,1.2,-0.0244
2.128e-02,1.16,-0.0256
2.144e-02,1.12,-0.0264
2.160e-02,1.08,-0.0276
2.176e-02,1.02,-0.0256
2.192e-02,0.98,-0.0268
2.208e-02,0.94,-0.0276
2.224e-02,0.9,-0.0268
2.240e-02,0.86,-0.0284
2.256e-02,0.82,-0.028
2.272e-02,0.78,-0.028
2.288e-02,0.74,-0.0284
2.304e-02,0.68,-0.0296
2.320e-02,0.64,-0.0292
2.336e-02,0.6,-0.0284
2.352e-02,0.56,-0.0272
2.368e-02,0.5,-0.0308
2.384e-02,0.46,-0.0296
2.400e-02,0.42,-0.0288
2.416e-02,0.36,-0.0316
2.432e-02,0.32,-0.0272
2.448e-02,0.28,-0.0284
2.464e-02,0.24,-0.0288
2.480e-02,0.18,-0.0308
2.496e-02,0.14,-0.0312
2.512e-02,0.1,-0.03
2.528e-02,0.06,-0.0308
2.544e-02,0,-0.0296
2.560e-02,-0.02,-0.0304
2.576e-02,-0.06,-0.0296
2.592e-02,-0.12,-0.03
2.608e-02,-0.16,-0.03
2.624e-02,-0.2,-0.0304
2.640e-02,-0.26,-0.0304
2.656e-02,-0.3,-0.0304
2.672e-02,-0.36,-0.028
2.688e-02,-0.4,-0.03
2.704e-02,-0.44,-0.0296
2.720e-02,-0.48,-0.0316
2.736e-02,-0.52,-0.0296
2.752e-02,-0.56,-0.028
2.768e-02,-0.6,-0.0288
2.784e-02,-0.66,-0.028
2.800e-02,-0.7,-0.0284
2.816e-02,-0.74,-0.0288
2.832e-02,-0.78,-0.0288
2.848e-02,-0.82,-0.0284
2.864e-02,-0.88,-0.0284
2.880e-02,-0.92,-0.0256
2.896e-02,-0.96,-0.0264
2.912e-02,-1,-0.0272
2.928e-02,-1.04,-0.0268
2.944e-02,-1.08,-0.0268
2.960e-02,-1.14,-0.0252
2.976e-02,-1.16,-0.0268
2.992e-02,-1.2,-0.028
3.008e-02,-1.24,-0.0248
3.024e-02,-1.28,-0.0244
3.040e-02,-1.34,-0.0236
3.056e-02,-1.36,-0.0248
3.072e-02,-1.4,-0.0228
3.088e-02,-1.44,-0.024
3.104e-02,-1.48,-0.0232
3.120e-02,-1.5,-0.0224
3.136e-02,-1.54,-0.0224
3.152e-02,-1.58,-0.022
3.168e-02,-1.6,-0.0204
3.184e-02,-1.64,-0.0208
3.200e-02,-1.68,-0.0208
3.216e-02,-1.7,-0.0196
3.232e-02,-1.74,-0.0204
3.248e-02,-1.76,-0.0192
3.264e-02,-1.78,-0.0192
3.280e-02,-1.82,-0.0188
3.296e-02,-1.84,-0.0176
3.312e-02,-1.88,-0.0164
3.328e-02,-1.9,-0.016
3.344e-02,-1.92,-0.016
3.360e-02,-1.94,-0.0152
3.376e-02,-1.96,-0.0148
3.392e-02,-1.98,-0.012
3.408e-02,-2,-0.0108
3.424e-02,-2.06,-0.0144
3.440e-02,-2.06,-0.014
3.456e-02,-2.08,-0.0112
3.472e-02,-2.1,-0.008
3.488e-02,-2.12,-0.0112
3.504e-02,-2.12,-0.01
3.520e-02,-2.14,-0.0124
3.536e-02,-2.16,-0.0108
3.552e-02,-2.18,-0.0096
3.568e-02,-2.2,-0.0092
3.584e-02,-2.22,-0.008
3.600e-02,-2.22,-0.008
3.616e-02,-2.24,-0.008
3.632e-02,-2.24,-0.008
3.648e-02,-2.26,-0.006
3.664e-02,-2.26,-0.0044
3.680e-02,-2.28,-0.0052
3.696e-02,-2.28,-0.0048
3.712e-02,-2.3,-0.0028
3.728e-02,-2.3,-0.004
3.744e-02,-2.3,-0.0032
3.760e-02,-2.32,-0.0044
3.776e-02,-2.3,-0.0016
3.792e-02,-2.3,-0.002
3.808e-02,-2.3,0.0012
3.824e-02,-2.3,0.0004
3.840e-02,-2.3,0.0032
3.856e-02,-2.3,0.0032
3.872e-02,-2.3,0.0032
3.888e-02,-2.28,0.0048
3.904e-02,-2.28,0.0052
3.920e-02,-2.26,0.0068
3.936e-02,-2.26,0.0048
3.952e-02,-2.24,0.0064
3.968e-02,-2.24,0.0064
3.984e-02,-2.22,0.0068
4.000e-02,-2.22,0.0092
4.016e-02,-2.18,0.0116
4.032e-02,-2.18,0.008
4.048e-02,-2.18,0.0088
4.064e-02,-2.16,0.0096
4.080e-02,-2.14,0.0096
4.096e-02,-2.12,0.0116
4.112e-02,-2.1,0.0124
4.128e-02,-2.08,0.0124
4.144e-02,-2.06,0.014
4.160e-02,-2.04,0.01
4.176e-02,-2.02,0.0136
4.192e-02,-2,0.0136
4.208e-02,-1.98,0.0148
4.224e-02,-1.94,0.014
4.240e-02,-1.92,0.016
4.256e-02,-1.9,0.0164
4.272e-02,-1.88,0.0168
4.288e-02,-1.84,0.016
4.304e-02,-1.82,0.018
4.320e-02,-1.78,0.018
4.336e-02,-1.76,0.0204
4.352e-02,-1.74,0.018
4.368e-02,-1.72,0.0204
4.384e-02,-1.68,0.0224
4.400e-02,-1.64,0.0184
4.416e-02,-1.62,0.0188
4.432e-02,-1.58,0.0184
4.448e-02,-1.54,0.022
4.464e-02,-1.52,0.022
4.480e-02,-1.48,0.0216
4.496e-02,-1.44,0.024
4.512e-02,-1.42,0.0204
4.528e-02,-1.38,0.0236
4.544e-02,-1.32,0.024
4.560e-02,-1.3,0.0252
4.576e-02,-1.26,0.0264
4.592e-02,-1.22,0.0268
4.608e-02,-1.18,0.026
4.624e-02,-1.14,0.0256
4.640e-02,-1.1,0.0264
4.656e-02,-1.06,0.0268
4.672e-02,-1.02,0.0276
4.688e-02,-0.98,0.0272
4.704e-02,-0.94,0.0264
4.720e-02,-0.88,0.0276
4.736e-02,-0.84,0.0272
4.752e-02,-0.8,0.028
4.768e-02,-0.76,0.0284
4.784e-02,-0.72,0.0284
4.800e-02,-0.68,0.0308
4.816e-02,-0.64,0.0288
4.832e-02,-0.58,0.0292
4.848e-02,-0.56,0.0288
4.864e-02,-0.5,0.03
4.880e-02,-0.46,0.0296
4.896e-02,-0.42,0.03
4.912e-02,-0.36,0.0304
4.928e-02,-0.32,0.0324
4.944e-02,-0.28,0.03
4.960e-02,-0.24,0.0284
4.976e-02,-0.18,0.0304
4.992e-02,-0.14,0.0308
5.008e-02,-0.1,0.0304
5.024e-02,-0.04,0.0304
5.040e-02,-0.02,0.0304
5.056e-02,0.04,0.0304
5.072e-02,0.08,0.0284
5.088e-02,0.12,0.0308
5.104e-02,0.18,0.0308
5.120e-02,0.2,0.0308
5.136e-02,0.26,0.03
5.152e-02,0.3,0.0312
5.168e-02,0.34,0.03
5.184e-02,0.38,0.0296
5.200e-02,0.44,0.028
5.216e-02,0.48,0.0312
5.232e-02,0.52,0.0292
5.248e-02,0.56,0.0292
5.264e-02,0.62,0.03
5.280e-02,0.66,0.0304
5.296e-02,0.72,0.0292
5.312e-02,0.76,0.0284
5.328e-02,0.8,0.0296
5.344e-02,0.84,0.0292
5.360e-02,0.88,0.0288
5.376e-02,0.92,0.0268
5.392e-02,0.96,0.0272
5.408e-02,1,0.0284
5.424e-02,1.04,0.0284
5.440e-02,1.08,0.0256
5.456e-02,1.12,0.0256
5.472e-02,1.16,0.0272
5.488e-02,1.22,0.028
5.504e-02,1.24,0.026
5.520e-02,1.28,0.0236
5.536e-02,1.32,0.026
5.552e-02,1.36,0.0256
5.568e-02,1.4,0.0248
5.584e-02,1.44,0.026
5.600e-02,1.48,0.0188
5.616e-02,1.5,0.024
5.632e-02,1.54,0.0228
5.648e-02,1.58,0.022
5.664e-02,1.6,0.0232
5.680e-02,1.64,0.0228
5.696e-02,1.68,0.0212
5.712e-02,1.72,0.0196
5.728e-02,1.74,0.0192
5.744e-02,1.76,0.0204
5.760e-02,1.8,0.0184
5.776e-02,1.82,0.0188
5.792e-02,1.86,0.0184
5.808e-02,1.88,0.0176
5.824e-02,1.9,0.0172
5.840e-02,1.94,0.0172
5.856e-02,1.94,0.0164
5.872e-02,1.98,0.016
5.888e-02,2,0.0152
5.904e-02,2.02,0.0148
5.920e-02,2.04,0.014
5.936e-02,2.06,0.0136
5.952e-02,2.08,0.0136
5.968e-02,2.1,0.0132
5.984e-02,2.12,0.0112
6.000e-02,2.14,0.0104
6.016e-02,2.16,0.0088
6.032e-02,2.16,0.0104
6.048e-02,2.2,0.0112
6.064e-02,2.2,0.0112
6.080e-02,2.22,0.0128
6.096e-02,2.24,0.0088
6.112e-02,2.24,0.0076
6.128e-02,2.24,0.0076
6.144e-02,2.26,0.0064
6.160e-02,2.26,0.0072
6.176e-02,2.28,0.0056
6.192e-02,2.28,0.0048
6.208e-02,2.3,0.0032
6.224e-02,2.3,0.004
6.240e-02,2.3,0.0036
6.256e-02,2.32,0.0024
6.272e-02,2.32,0.002
6.288e-02,2.32,0.0012
6.304e-02,2.32,0
6.320e-02,2.3,0
6.336e-02,2.3,-0.0032
6.352e-02,2.3,-0.0024
6.368e-02,2.3,-0.0012
6.384e-02,2.32,-0.002
6.400e-02,2.3,-0.002
6.416e-02,2.28,-0.0056
6.432e-02,2.28,-0.0044
6.448e-02,2.26,-0.0028
6.464e-02,2.26,-0.0052
6.480e-02,2.24,-0.0072
6.496e-02,2.22,-0.0108
6.512e-02,2.22,-0.008
6.528e-02,2.22,-0.0064
6.544e-02,2.18,-0.0092
6.560e-02,2.18,-0.0108
6.576e-02,2.16,-0.0112
6.592e-02,2.14,-0.0116
6.608e-02,2.12,-0.0104
6.624e-02,2.12,-0.0104
6.640e-02,2.08,-0.0116
6.656e-02,2.08,-0.0132
6.672e-02,2.04,-0.0136
6.688e-02,2.04,-0.014
6.704e-02,2.02,-0.0144
6.720e-02,1.98,-0.0148
6.736e-02,1.96,-0.0136
6.752e-02,1.94,-0.016
6.768e-02,1.9,-0.016
6.784e-02,1.88,-0.0156
6.800e-02,1.86,-0.0172
6.816e-02,1.84,-0.0184
6.832e-02,1.8,-0.018
6.848e-02,1.78,-0.0188
6.864e-02,1.76,-0.0188
6.880e-02,1.72,-0.0196
6.896e-02,1.68,-0.0204
6.912e-02,1.66,-0.0192
6.928e-02,1.62,-0.0208
6.944e-02,1.58,-0.0216
6.960e-02,1.56,-0.0224
6.976e-02,1.52,-0.0272
6.992e-02,1.48,-0.0224
7.008e-02,1.44,-0.0224
7.024e-02,1.42,-0.0236
7.040e-02,1.38,-0.0224
7.056e-02,1.34,-0.0284
7.072e-02,1.3,-0.0256
7.088e-02,1.24,-0.0252
7.104e-02,1.22,-0.0252
7.120e-02,1.18,-0.0268
7.136e-02,1.12,-0.0256
7.152e-02,1.08,-0.028
7.168e-02,1.06,-0.0276
7.184e-02,1.02,-0.0268
7.200e-02,0.96,-0.0296
7.216e-02,0.94,-0.0276
7.232e-02,0.88,-0.0264
7.248e-02,0.84,-0.0276
7.264e-02,0.8,-0.0284
7.280e-02,0.76,-0.0284
7.296e-02,0.72,-0.0312
7.312e-02,0.66,-0.0284
7.328e-02,0.64,-0.0288
7.344e-02,0.6,-0.0288
7.360e-02,0.54,-0.0288
7.376e-02,0.48,-0.0308
7.392e-02,0.44,-0.0312
7.408e-02,0.38,-0.03
7.424e-02,0.34,-0.026
7.440e-02,0.3,-0.0308
7.456e-02,0.26,-0.032
7.472e-02,0.22,-0.03
7.488e-02,0.18,-0.0284
7.504e-02,0.12,-0.0304
7.520e-02,0.08,-0.0312
7.536e-02,0.04,-0.0312
7.552e-02,0,-0.0316
7.568e-02,-0.04,-0.0304
7.584e-02,-0.1,-0.0292
7.600e-02,-0.16,-0.032
7.616e-02,-0.2,-0.0304
7.632e-02,-0.24,-0.0304
7.648e-02,-0.28,-0.03
7.664e-02,-0.32,-0.0304
7.680e-02,-0.38,-0.0304
7.696e-02,-0.4,-0.03
7.712e-02,-0.46,-0.0284
7.728e-02,-0.5,-0.0304
7.744e-02,-0.54,-0.0312
7.760e-02,-0.58,-0.028
7.776e-02,-0.64,-0.03
7.792e-02,-0.68,-0.0284
7.808e-02,-0.72,-0.0292
7.824e-02,-0.76,-0.0284
7.840e-02,-0.8,-0.0284
7.856e-02,-0.84,-0.0288
7.872e-02,-0.9,-0.026
7.888e-02,-0.94,-0.0284
7.904e-02,-0.98,-0.0272
7.920e-02,-1.02,-0.0268
7.936e-02,-1.06,-0.0252
7.952e-02,-1.1,-0.0264
7.968e-02,-1.14,-0.0268
7.984e-02,-1.18,-0.0244
8.000e-02,-1.22,-0.0252
8.016e-02,-1.26,-0.0256
8.032e-02,-1.3,-0.0252
8.048e-02,-1.34,-0.0244
8.064e-02,-1.38,-0.024
8.080e-02,-1.42,-0.0244
8.096e-02,-1.46,-0.024
8.112e-02,-1.5,-0.0236
8.128e-02,-1.54,-0.0232
8.144e-02,-1.56,-0.0232
8.160e-02,-1.6,-0.0216
8.176e-02,-1.64,-0.0224
8.192e-02,-1.66,-0.0196
8.208e-02,-1.68,-0.0216
8.224e-02,-1.72,-0.022
8.240e-02,-1.74,-0.0204
8.256e-02,-1.78,-0.0232
8.272e-02,-1.8,-0.0228
8.288e-02,-1.84,-0.0196
8.304e-02,-1.86,-0.0148
8.320e-02,-1.88,-0.0172
8.336e-02,-1.92,-0.0176
8.352e-02,-1.94,-0.0164
8.368e-02,-1.96,-0.0148
8.384e-02,-2,-0.0192
8.400e-02,-2,-0.014
8.416e-02,-2.02,-0.0124
8.432e-02,-2.04,-0.0112
8.448e-02,-2.08,-0.014
8.464e-02,-2.08,-0.012
8.480e-02,-2.1,-0.0108
8.496e-02,-2.14,-0.0136
8.512e-02,-2.14,-0.01
8.528e-02,-2.16,-0.0104
8.544e-02,-2.18,-0.0124
8.560e-02,-2.2,-0.0116
8.576e-02,-2.2,-0.008
8.592e-02,-2.22,-0.0092
8.608e-02,-2.24,-0.0096
8.624e-02,-2.24,-0.0052
8.640e-02,-2.24,-0.0056
8.656e-02,-2.26,-0.0052
8.672e-02,-2.26,-0.0044
8.688e-02,-2.28,-0.0064
8.704e-02,-2.3,-0.0076
8.720e-02,-2.3,-0.0048
8.736e-02,-2.3,-0.0032
8.752e-02,-2.3,-0.004
8.768e-02,-2.32,-0.0024
8.784e-02,-2.32,-0.002
8.800e-02,-2.32,0
8.816e-02,-2.3,-0.0008
8.832e-02,-2.3,0.0008
8.848e-02,-2.3,0.0032
8.864e-02,-2.3,0.0032
8.880e-02,-2.3,0.0024
8.896e-02,-2.28,0.0028
8.912e-02,-2.28,0.0052
8.928e-02,-2.26,0.0056
8.944e-02,-2.26,0.0056
8.960e-02,-2.24,0.01
8.976e-02,-2.24,0.0068
8.992e-02,-2.22,0.006
9.008e-02,-2.22,0.0076
9.024e-02,-2.2,0.0092
9.040e-02,-2.18,0.01
9.056e-02,-2.16,0.0096
9.072e-02,-2.16,0.0096
9.088e-02,-2.14,0.0068
9.104e-02,-2.12,0.012
9.120e-02,-2.1,0.012
9.136e-02,-2.08,0.0124
9.152e-02,-2.06,0.012
9.168e-02,-2.02,0.012
9.184e-02,-2.02,0.0136
9.200e-02,-1.98,0.016
9.216e-02,-1.96,0.0132
9.232e-02,-1.94,0.016
9.248e-02,-1.92,0.0148
9.264e-02,-1.9,0.0172
9.280e-02,-1.86,0.0152
9.296e-02,-1.84,0.0172
9.312e-02,-1.82,0.0184
9.328e-02,-1.78,0.0188
9.344e-02,-1.76,0.02
9.360e-02,-1.72,0.0212
9.376e-02,-1.7,0.0228
9.392e-02,-1.68,0.0172
9.408e-02,-1.64,0.0216
9.424e-02,-1.62,0.0196
9.440e-02,-1.58,0.022
9.456e-02,-1.54,0.022
9.472e-02,-1.5,0.022
9.488e-02,-1.46,0.0224
9.504e-02,-1.44,0.0232
9.520e-02,-1.4,0.0256
9.536e-02,-1.36,0.0224
9.552e-02,-1.3,0.0248
9.568e-02,-1.28,0.0236
9.584e-02,-1.24,0.0244
9.600e-02,-1.2,0.026
9.616e-02,-1.16,0.0208
9.632e-02,-1.12,0.0248
9.648e-02,-1.1,0.024
9.664e-02,-1.04,0.0272
9.680e-02,-1,0.0268
9.696e-02,-0.96,0.0272
9.712e-02,-0.92,0.0284
9.728e-02,-0.88,0.0292
9.744e-02,-0.84,0.0276
9.760e-02,-0.78,0.0276
9.776e-02,-0.74,0.028
9.792e-02,-0.7,0.0284
9.808e-02,-0.66,0.0292
9.824e-02,-0.6,0.0276
9.840e-02,-0.56,0.0296
9.856e-02,-0.54,0.0308
9.872e-02,-0.48,0.0288
9.888e-02,-0.44,0.0312
9.904e-02,-0.4,0.0292
9.920e-02,-0.34,0.0304
9.936e-02,-0.3,0.0304
9.952e-02,-0.26,0.0292
9.968e-02,-0.24,0.0284
9.984e-02,-0.18,0.0292
1.000e-01,-0.12,0.03
1.002e-01,-0.08,0.0296
1.003e-01,-0.04,0.03
1.005e-01,0,0.03
1.006e-01,0.04,0.0296
1.008e-01,0.1,0.0304
1.010e-01,0.14,0.0308
1.011e-01,0.18,0.0308
1.013e-01,0.22,0.0288
1.014e-01,0.28,0.0304
1.016e-01,0.32,0.0312
1.018e-01,0.38,0.0316
1.019e-01,0.4,0.0292
1.021e-01,0.44,0.0292
1.022e-01,0.5,0.0276
1.024e-01,0.54,0.0304
1.026e-01,0.58,0.026
1.027e-01,0.64,0.0288
1.029e-01,0.68,0.0272
1.030e-01,0.72,0.0248
1.032e-01,0.76,0.0292
1.034e-01,0.8,0.0292
1.035e-01,0.86,0.028
1.037e-01,0.88,0.0276
1.038e-01,0.94,0.0264
1.040e-01,0.98,0.028
1.042e-01,1.02,0.0248
1.043e-01,1.06,0.0268
1.045e-01,1.1,0.0264
1.046e-01,1.12,0.0208
1.048e-01,1.18,0.0276
1.050e-01,1.22,0.028
1.051e-01,1.26,0.026
1.053e-01,1.3,0.0248
1.054e-01,1.34,0.024
1.056e-01,1.38,0.024
1.058e-01,1.42,0.024
1.059e-01,1.46,0.024
1.061e-01,1.48,0.0236
1.062e-01,1.52,0.0256
1.064e-01,1.56,0.0232
1.066e-01,1.6,0.022
1.067e-01,1.62,0.0212
1.069e-01,1.66,0.0196
1.070e-01,1.7,0.0204
1.072e-01,1.7,0.0196
1.074e-01,1.76,0.0216
1.075e-01,1.78,0.0208
1.077e-01,1.8,0.0176
1.078e-01,1.82,0.0148
1.080e-01,1.86,0.02
1.082e-01,1.88,0.0196
1.083e-01,1.92,0.0172
1.085e-01,1.94,0.0164
1.086e-01,1.96,0.0164
1.088e-01,2,0.0184
1.090e-01,2,0.0152
1.091e-01,2.02,0.0148
1.093e-01,2.04,0.0128
1.094e-01,2.08,0.0128
1.096e-01,2.1,0.0132
1.098e-01,2.1,0.0116
1.099e-01,2.14,0.012
1.101e-01,2.14,0.0112
1.102e-01,2.16,0.0136
1.104e-01,2.18,0.01
1.106e-01,2.18,0.0092
1.107e-01,2.2,0.0104
1.109e-01,2.22,0.008
1.110e-01,2.22,0.0092
1.112e-01,2.24,0.0076
1.114e-01,2.28,0.0076
1.115e-01,2.26,0.0068
1.117e-01,2.26,0.0056
1.118e-01,2.28,0.006
1.120e-01,2.3,0.008
1.122e-01,2.3,0.004
1.123e-01,2.3,0.0056
1.125e-01,2.3,0.0048
1.126e-01,2.32,0.0032
1.128e-01,2.32,-0.0016
1.130e-01,2.32,0.0012
1.131e-01,2.32,-0.002
1.133e-01,2.32,-0.0004
1.134e-01,2.32,-0.0012
1.136e-01,2.3,-0.002
1.138e-01,2.3,-0.002
1.139e-01,2.3,-0.004
1.141e-01,2.28,-0.0044
1.142e-01,2.28,-0.0044
1.144e-01,2.26,-0.0048
1.146e-01,2.28,-0.006
1.147e-01,2.26,-0.0064
1.149e-01,2.24,-0.0096
1.150e-01,2.24,-0.0072
1.152e-01,2.22,-0.004
1.154e-01,2.2,-0.0084
1.155e-01,2.18,-0.0092
1.157e-01,2.18,-0.01
1.158e-01,2.14,-0.0156
1.160e-01,2.14,-0.0112
1.162e-01,2.12,-0.0116
1.163e-01,2.1,-0.0104
1.165e-01,2.08,-0.012
1.166e-01,2.08,-0.012
1.168e-01,2.06,-0.0148
1.170e-01,2.04,-0.0144
1.171e-01,2,-0.0156
1.173e-01,1.98,-0.0152
1.174e-01,1.96,-0.0144
1.176e-01,1.92,-0.0172
1.178e-01,1.9,-0.0168
1.179e-01,1.88,-0.016
1.181e-01,1.84,-0.0164
1.182e-01,1.84,-0.018
1.184e-01,1.8,-0.0172
1.186e-01,1.76,-0.0192
1.187e-01,1.74,-0.0188
1.189e-01,1.7,-0.0192
1.190e-01,1.66,-0.0196
1.192e-01,1.64,-0.02
1.194e-01,1.6,-0.0208
1.195e-01,1.58,-0.0216
1.197e-01,1.54,-0.0216
1.198e-01,1.5,-0.0248
1.200e-01,1.48,-0.0216
1.202e-01,1.44,-0.0232
1.203e-01,1.4,-0.024
1.205e-01,1.36,-0.0224
1.206e-01,1.34,-0.0244
1.208e-01,1.28,-0.0248
1.210e-01,1.24,-0.0248
1.211e-01,1.2,-0.024
1.213e-01,1.16,-0.026
1.214e-01,1.12,-0.0248
1.216e-01,1.08,-0.034
1.218e-01,1.04,-0.0252
1.219e-01,1,-0.028
1.221e-01,0.96,-0.0268
1.222e-01,0.92,-0.028
1.224e-01,0.88,-0.028
1.226e-01,0.84,-0.0276
1.227e-01,0.78,-0.0316
1.229e-01,0.74,-0.0284
1.230e-01,0.7,-0.0276
1.232e-01,0.66,-0.0292
1.234e-01,0.62,-0.0276
1.235e-01,0.56,-0.0288
1.237e-01,0.52,-0.0272
1.238e-01,0.48,-0.0268
1.240e-01,0.44,-0.0308
1.242e-01,0.38,-0.0264
1.243e-01,0.34,-0.0276
1.245e-01,0.3,-0.0288
1.246e-01,0.24,-0.0304
1.248e-01,0.22,-0.0292
1.250e-01,0.16,-0.03
1.251e-01,0.12,-0.0272
1.253e-01,0.06,-0.0296
1.254e-01,0.04,-0.032
1.256e-01,-0.04,-0.03
1.258e-01,-0.06,-0.0308
1.259e-01,-0.1,-0.03
1.261e-01,-0.16,-0.0288
1.262e-01,-0.22,-0.0276
1.264e-01,-0.24,-0.0304
1.266e-01,-0.28,-0.0292
1.267e-01,-0.34,-0.0336
1.269e-01,-0.38,-0.0296
1.270e-01,-0.42,-0.0292
1.272e-01,-0.48,-0.0308
1.274e-01,-0.52,-0.0304
1.275e-01,-0.56,-0.03
1.277e-01,-0.62,-0.0288
1.278e-01,-0.64,-0.0268
1.280e-01,-0.68,-0.026
1.282e-01,-0.74,-0.0288
1.283e-01,-0.78,-0.028
1.285e-01,-0.82,-0.028
1.286e-01,-0.86,-0.028
1.288e-01,-0.92,-0.0272
1.290e-01,-0.94,-0.028
1.291e-01,-0.98,-0.024
1.293e-01,-1.04,-0.0252
1.294e-01,-1.08,-0.0264
1.296e-01,-1.12,-0.0256
1.298e-01,-1.16,-0.0236
1.299e-01,-1.2,-0.0248
1.301e-01,-1.24,-0.026
1.302e-01,-1.28,-0.0236
1.304e-01,-1.3,-0.0256
1.306e-01,-1.36,-0.0248
1.307e-01,-1.4,-0.0236
1.309e-01,-1.44,-0.0228
1.310e-01,-1.46,-0.0228
1.312e-01,-1.5,-0.0212
1.314e-01,-1.54,-0.022
1.315e-01,-1.58,-0.0228
1.317e-01,-1.6,-0.0212
1.318e-01,-1.64,-0.022
1.320e-01,-1.66,-0.02
1.322e-01,-1.7,-0.0192
1.323e-01,-1.72,-0.02
1.325e-01,-1.76,-0.0196
1.326e-01,-1.78,-0.0184
1.328e-01,-1.82,-0.018
1.330e-01,-1.84,-0.018
1.331e-01,-1.86,-0.0184
1.333e-01,-1.9,-0.0184
1.334e-01,-1.94,-0.016
1.336e-01,-1.94,-0.0156
1.338e-01,-1.96,-0.014
1.339e-01,-2,-0.0172
1.341e-01,-2.02,-0.0148
1.342e-01,-2.04,-0.0128
1.344e-01,-2.06,-0.0128
1.346e-01,-2.08,-0.0112
1.347e-01,-2.1,-0.0116
1.349e-01,-2.1,-0.0124
1.350e-01,-2.12,-0.0128
1.352e-01,-2.14,-0.01
1.354e-01,-2.16,-0.01
1.355e-01,-2.18,-0.0092
1.357e-01,-2.2,-0.0096
1.358e-01,-2.22,-0.008
1.360e-01,-2.22,-0.0088
1.362e-01,-2.24,-0.0076
1.363e-01,-2.24,-0.0076
1.365e-01,-2.26,-0.0056
1.366e-01,-2.26,-0.0056
1.368e-01,-2.28,-0.0068
1.370e-01,-2.28,-0.0068
1.371e-01,-2.28,-0.0036
1.373e-01,-2.3,-0.0036
1.374e-01,-2.3,-0.0024
1.376e-01,-2.3,-0.0008
1.378e-01,-2.32,-0.0016
1.379e-01,-2.32,-0.0012
1.381e-01,-2.32,0.0012
1.382e-01,-2.3,0.002
1.384e-01,-2.3,0.0032
1.386e-01,-2.3,0.0032
1.387e-01,-2.28,0.0048
1.389e-01,-2.3,-0.0016
1.390e-01,-2.28,0.0048
1.392e-01,-2.26,0.0064
1.394e-01,-2.26,0.006
1.395e-01,-2.24,0.0084
1.397e-01,-2.24,0.0076
1.398e-01,-2.22,0.0076
1.400e-01,-2.2,0.0084
1.402e-01,-2.2,0.0088
1.403e-01,-2.2,0.0088
1.405e-01,-2.18,0.0104
1.406e-01,-2.16,0.0104
1.408e-01,-2.14,0.0088
1.410e-01,-2.12,0.0108
1.411e-01,-2.12,0.0112
1.413e-01,-2.08,0.0152
1.414e-01,-2.06,0.0124
1.416e-01,-2.04,0.0132
1.418e-01,-2.02,0.0132
1.419e-01,-2,0.0148
1.421e-01,-1.98,0.0148
1.422e-01,-1.96,0.014
1.424e-01,-1.94,0.016
1.426e-01,-1.9,0.0172
1.427e-01,-1.88,0.0168
1.429e-01,-1.86,0.0164
1.430e-01,-1.84,0.0168
1.432e-01,-1.8,0.0192
1.434e-01,-1.78,0.0172
1.435e-01,-1.74,0.0192
1.437e-01,-1.72,0.0196
1.438e-01,-1.68,0.0208
1.440e-01,-1.66,0.0208
1.442e-01,-1.62,0.0208
1.443e-01,-1.6,0.0236
1.445e-01,-1.56,0.0196
1.446e-01,-1.52,0.0208
1.448e-01,-1.48,0.024
1.450e-01,-1.46,0.0216
1.451e-01,-1.42,0.0212
1.453e-01,-1.38,0.0248
1.454e-01,-1.34,0.0248
1.456e-01,-1.3,0.024
1.458e-01,-1.26,0.0248
1.459e-01,-1.24,0.0232
1.461e-01,-1.18,0.0244
1.462e-01,-1.14,0.0256
1.464e-01,-1.1,0.0252
1.466e-01,-1.06,0.0248
1.467e-01,-1.04,0.0256
1.469e-01,-0.98,0.0264
1.470e-01,-0.94,0.028
1.472e-01,-0.9,0.0296
1.474e-01,-0.86,0.028
1.475e-01,-0.82,0.0276
1.477e-01,-0.76,0.0288
1.478e-01,-0.74,0.0252
1.480e-01,-0.7,0.0244
1.482e-01,-0.66,0.0304
1.483e-01,-0.58,0.0296
1.485e-01,-0.56,0.0268
1.486e-01,-0.5,0.0296
1.488e-01,-0.46,0.0292
1.490e-01,-0.42,0.0304
1.491e-01,-0.4,0.0268
1.493e-01,-0.32,0.0308
1.494e-01,-0.3,0.0292
1.496e-01,-0.24,0.0296
1.498e-01,-0.2,0.0308
1.499e-01,-0.16,0.03
1.501e-01,-0.12,0.0296
1.502e-01,-0.08,0.0308
1.504e-01,-0.02,0.0296
1.506e-01,0.02,0.0292
1.507e-01,0.06,0.0252
1.509e-01,0.1,0.0292
1.510e-01,0.16,0.03
1.512e-01,0.2,0.0312
1.514e-01,0.24,0.03
1.515e-01,0.3,0.0296
1.517e-01,0.32,0.032
1.518e-01,0.38,0.03
1.520e-01,0.42,0.0296
1.522e-01,0.46,0.0308
1.523e-01,0.52,0.0288
1.525e-01,0.56,0.0296
1.526e-01,0.6,0.0288
1.528e-01,0.64,0.0276
1.530e-01,0.7,0.03
1.531e-01,0.74,0.0284
1.533e-01,0.78,0.0276
1.534e-01,0.82,0.028
1.536e-01,0.86,0.0284
1.538e-01,0.92,0.0268
1.539e-01,0.96,0.0268
1.541e-01,1,0.0288
1.542e-01,1.04,0.0244
1.544e-01,1.08,0.0276
1.546e-01,1.12,0.0256
1.547e-01,1.14,0.0264
1.549e-01,1.2,0.0256
1.550e-01,1.24,0.0244
1.552e-01,1.28,0.026
1.554e-01,1.32,0.024
1.555e-01,1.34,0.026
1.557e-01,1.4,0.0244
1.558e-01,1.44,0.0236
1.560e-01,1.48,0.026
1.562e-01,1.5,0.024
1.563e-01,1.54,0.0228
1.565e-01,1.58,0.0196
1.566e-01,1.6,0.0184
1.568e-01,1.64,0.0208
1.570e-01,1.66,0.0212
1.571e-01,1.7,0.0212
1.573e-01,1.72,0.0196
1.574e-01,1.76,0.022
1.576e-01,1.78,0.0164
1.578e-01,1.82,0.0196
1.579e-01,1.84,0.018
1.581e-01,1.86,0.0176
1.582e-01,1.88,0.0172
1.584e-01,1.92,0.0168
1.586e-01,1.94,0.016
1.587e-01,1.96,0.0144
1.589e-01,2,0.0156
1.590e-01,2,0.0148
1.592e-01,2.04,0.014
1.594e-01,2.06,0.0136
1.595e-01,2.08,0.0128
1.597e-01,2.08,0.0124
1.598e-01,2.12,0.0132

